# Cooling table for solar metallicity, 1/2 solar metallicity
#   (from Chris Loken, computed with Sarazin & White's analytic expression)
#  temperature if log(K), cooling rate/ne^3 (erg cm^3/s)
# This is the new cooling table based on http://arxiv.org/pdf/0909.5204v2
#    logT      solar    1/2 solar 
      4.20000     -21.3361     -21.3381
      4.24000     -21.3623     -21.3661
      4.28000     -21.4525     -21.4612
      4.32000     -21.5498     -21.5694
      4.36000     -21.6238     -21.6648
      4.40000     -21.6623     -21.7381
      4.44000     -21.6497     -21.7711
      4.48000     -21.5969     -21.7669
      4.52000     -21.5159     -21.7263
      4.56000     -21.4141     -21.6560
      4.60000     -21.3034     -21.5662
      4.64000     -21.1928     -21.4688
      4.68000     -21.0938     -21.3785
      4.72000     -20.9973     -21.2874
      4.76000     -20.9196     -21.2130
      4.80000     -20.8532     -21.1486
      4.84000     -20.8050     -21.1018
      4.88000     -20.7735     -21.0712
      4.92000     -20.7536     -21.0519
      4.96000     -20.7428     -21.0415
      5.00000     -20.7578     -21.0567
      5.04000     -20.7825     -21.0815
      5.08000     -20.8021     -21.1013
      5.12000     -20.7965     -21.0960
      5.16000     -20.7859     -21.0855
      5.20000     -20.7703     -21.0701
      5.24000     -20.7561     -21.0560
      5.28000     -20.7514     -21.0515
      5.32000     -20.7483     -21.0484
      5.36000     -20.7553     -21.0554
      5.40000     -20.7929     -21.0930
      5.44000     -20.8794     -21.1793
      5.48000     -21.0405     -21.3401
      5.52000     -21.2276     -21.5265
      5.56000     -21.3727     -21.6707
      5.60000     -21.4552     -21.7528
      5.64000     -21.4913     -21.7888
      5.68000     -21.5107     -21.8080
      5.72000     -21.5354     -21.8325
      5.76000     -21.5837     -21.8803
      5.80000     -21.6534     -21.9493
      5.84000     -21.7090     -22.0042
      5.88000     -21.7409     -22.0357
      5.92000     -21.7592     -22.0537
      5.96000     -21.7695     -22.0638
      6.00000     -21.7877     -22.0817
      6.04000     -21.8087     -22.1023
      6.08000     -21.8306     -22.1236
      6.12000     -21.8386     -22.1312
      6.16000     -21.8493     -22.1416
      6.20000     -21.8690     -22.1607
      6.24000     -21.9062     -22.1968
      6.28000     -21.9708     -22.2595
      6.32000     -22.0543     -22.3400
      6.36000     -22.1497     -22.4313
      6.40000     -22.2354     -22.5118
      6.44000     -22.3090     -22.5804
      6.48000     -22.3616     -22.6286
      6.52000     -22.4015     -22.6636
      6.56000     -22.4254     -22.6846
      6.60000     -22.4390     -22.6950
      6.64000     -22.4443     -22.6987
      6.68000     -22.4375     -22.6905
      6.72000     -22.4323     -22.6848
      6.76000     -22.4230     -22.6744
      6.80000     -22.4147     -22.6659
      6.84000     -22.4131     -22.6623
      6.88000     -22.4162     -22.6627
      6.92000     -22.4265     -22.6706
      6.96000     -22.4402     -22.6800
      7.00000     -22.4580     -22.6927
      7.04000     -22.4830     -22.7125
      7.08000     -22.5087     -22.7310
      7.12000     -22.5429     -22.7557
      7.16000     -22.5776     -22.7798
      7.20000     -22.6155     -22.8075
      7.24000     -22.6490     -22.8285
      7.28000     -22.6689     -22.8384
      7.32000     -22.6842     -22.8441
      7.36000     -22.6952     -22.8463
      7.40000     -22.7039     -22.8495
      7.44000     -22.7033     -22.8429
      7.48000     -22.6988     -22.8336
      7.52000     -22.6925     -22.8228
      7.56000     -22.6843     -22.8108
      7.60000     -22.6731     -22.7967
      7.64000     -22.6606     -22.7816
      7.68000     -22.6540     -22.7738
      7.72000     -22.6402     -22.7579
      7.76000     -22.6245     -22.7408
      7.80000     -22.6099     -22.7243
      7.84000     -22.5967     -22.7087
      7.88000     -22.5805     -22.6911
      7.92000     -22.5646     -22.6738
      7.96000     -22.5496     -22.6570
      8.00000     -22.5332     -22.6393
      8.04000     -22.5199     -22.6236
      8.08000     -22.5040     -22.6062
      8.12000     -22.4881     -22.5888
      8.16000     -22.4718     -22.5711
